# Step     T (K)     E_KS (eV)    E_tot (eV)   Vol (A^3)    P (kBar)
     1   7226.14    -898.13326    -895.33110    1000.001       4.944
     2   7619.53    -898.32873    -895.37403    1000.001       4.464
     3   7859.28    -898.42422    -895.37655    1000.001       3.587
     4   7533.69    -898.27946    -895.35805    1000.001       3.035
     5   7191.91    -898.13823    -895.34935    1000.001       2.682
     6   7199.50    -898.14105    -895.34922    1000.001       2.632
     7   7556.89    -898.28820    -895.35779    1000.001       3.019
     8   7904.15    -898.44090    -895.37583    1000.001       3.954
     9   7706.75    -898.36162    -895.37310    1000.001       5.225
    10   7370.72    -898.18945    -895.33124    1000.001       5.680
    11   7793.75    -898.39424    -895.37198    1000.001       4.444
    12   8092.01    -898.51487    -895.37696    1000.001       2.982
    13   7779.88    -898.37598    -895.35910    1000.001       1.973
    14   7360.19    -898.20528    -895.35115    1000.001       1.358
    15   7178.03    -898.13560    -895.35211    1000.001       1.305
    16   7205.47    -898.15636    -895.36223    1000.001       1.946
    17   7039.68    -898.11223    -895.38239    1000.001       3.404
    18   6089.81    -897.74405    -895.38254    1000.001       5.498
    19   4755.17    -897.18022    -895.33626    1000.001       7.122
    20   4172.46    -896.98358    -895.36558    1000.001       7.133
    21   3907.77    -896.87994    -895.36458    1000.001       6.447
    22   3655.48    -896.77976    -895.36224    1000.001       5.455
    23   3598.65    -896.77621    -895.38072    1000.001       4.240
    24   3674.96    -896.83226    -895.40719    1000.001       3.033
    25   3749.94    -896.87927    -895.42511    1000.001       2.058
    26   3770.53    -896.88828    -895.42614    1000.001       1.312
    27   3760.67    -896.88362    -895.42531    1000.001       0.672
    28   3773.18    -896.88736    -895.42420    1000.001       0.145
    29   3872.91    -896.92407    -895.42224    1000.001      -0.225
    30   4152.68    -897.02956    -895.41923    1000.001      -0.374
    31   4701.41    -897.24437    -895.42125    1000.001      -0.136
    32   5361.58    -897.52120    -895.44209    1000.001       0.796
    33   5463.10    -897.58390    -895.46542    1000.001       2.682
    34   4664.37    -897.22964    -895.42089    1000.001       4.783
    35   4449.11    -897.12467    -895.39940    1000.001       4.558
    36   5321.16    -897.52034    -895.45690    1000.001       1.999
    37   5738.19    -897.67102    -895.44587    1000.001      -0.215
    38   5588.25    -897.58501    -895.41799    1000.001      -1.687
    39   5766.05    -897.63229    -895.39633    1000.001      -2.604
    40   6808.77    -898.06552    -895.42521    1000.001      -2.567
    41   8107.06    -898.62132    -895.47757    1000.001      -0.878
    42   8016.54    -898.61469    -895.50604    1000.001       2.968
    43   7207.51    -898.11809    -895.32316    1000.001       6.430
    44   9199.00    -899.04909    -895.48190    1000.001       4.952
    45  10937.89    -899.81362    -895.57212    1000.001       4.440
    46   8321.84    -898.77985    -895.55281    1000.001       7.756
    47   5779.23    -897.48262    -895.24155    1000.001       7.873
    48   7716.28    -898.55185    -895.55963    1000.001       0.290
    49   7164.78    -898.21603    -895.43768    1000.001      -3.208
    50   5081.50    -897.35668    -895.38618    1000.001      -5.029
    51   3483.91    -896.73220    -895.38121    1000.001      -6.267
    52   2714.04    -896.43749    -895.38504    1000.001      -6.835
    53   2657.28    -896.41751    -895.38707    1000.001      -6.787
    54   3216.92    -896.63422    -895.38677    1000.001      -6.215
    55   4329.40    -897.07130    -895.39244    1000.001      -5.005
    56   5642.41    -897.61360    -895.42558    1000.001      -2.624
    57   6168.99    -897.84298    -895.45077    1000.001       1.542
    58   6431.75    -897.85158    -895.35747    1000.001       5.673
    59   7315.74    -898.45252    -895.61562    1000.001       6.913
    60   5406.56    -897.39527    -895.29871    1000.001       8.689
    61   6182.89    -897.92883    -895.53123    1000.001       2.722
    62   7003.28    -898.21768    -895.50195    1000.001      -3.229
    63   5169.16    -897.41876    -895.41427    1000.001      -5.805
    64   3198.87    -896.63304    -895.39258    1000.001      -7.679
    65   2137.18    -896.22023    -895.39147    1000.001      -8.903
    66   2154.34    -896.23147    -895.39605    1000.001      -9.361
    67   3173.77    -896.63829    -895.40756    1000.001      -8.945
    68   4808.01    -897.30489    -895.44044    1000.001      -7.305
    69   5897.44    -897.78551    -895.49860    1000.001      -3.825
    70   5628.04    -897.57325    -895.39081    1000.001       0.856
    71   7363.95    -898.25970    -895.40410    1000.001       1.435
    72  10493.73    -899.63554    -895.56628    1000.001      -0.030
    73  10047.42    -899.42151    -895.52533    1000.001       2.230
    74   8347.43    -898.52714    -895.29018    1000.001       3.456
    75   9478.11    -899.19617    -895.52075    1000.001      -1.154
    76   9669.85    -899.22463    -895.47486    1000.001      -4.220
    77   8311.12    -898.64355    -895.42066    1000.001      -5.396
    78   7133.23    -898.17282    -895.40669    1000.001      -5.834
    79   6767.40    -898.03210    -895.40784    1000.001      -5.431
    80   7184.02    -898.20509    -895.41927    1000.001      -3.973
    81   7879.70    -898.51173    -895.45614    1000.001      -1.084
    82   7516.65    -898.43064    -895.51583    1000.001       3.855
    83   5825.05    -897.60946    -895.35062    1000.001       9.703
    84   7094.93    -898.22832    -895.47705    1000.001      10.438
    85   8952.99    -899.04003    -895.56824    1000.001      10.696
    86   7067.08    -898.27130    -895.53083    1000.001      14.335
    87   3839.74    -896.80343    -895.31446    1000.001      16.972
    88   5377.26    -897.56141    -895.47622    1000.001      12.149
    89   8414.72    -898.80952    -895.54646    1000.001       5.860
    90   8763.21    -898.85664    -895.45844    1000.001       2.482
    91   8193.14    -898.60818    -895.43104    1000.001      -0.133
    92   7882.62    -898.48012    -895.42340    1000.001      -2.030
    93   8126.48    -898.57465    -895.42336    1000.001      -3.032
    94   8806.77    -898.86362    -895.44853    1000.001      -2.850
    95   8816.16    -898.94921    -895.53048    1000.001      -0.697
    96   6158.80    -897.88137    -895.49311    1000.001       3.744
    97   4800.74    -897.16749    -895.30586    1000.001       4.186
    98   7551.97    -898.47659    -895.54808    1000.001      -1.693
    99   8211.45    -898.64173    -895.45749    1000.001      -4.324
   100   7387.69    -898.27658    -895.41178    1000.001      -5.439
   101   6801.32    -898.05095    -895.41354    1000.001      -5.717
   102   6413.96    -897.95319    -895.46598    1000.001      -4.419
   103   4562.96    -897.29574    -895.52632    1000.001      -0.663
   104   2290.67    -896.11772    -895.22945    1000.001       2.824
   105   5194.03    -897.53353    -895.51939    1000.001      -1.249
   106   8334.50    -898.74019    -895.50824    1000.001      -3.703
   107   8710.73    -898.88249    -895.50465    1000.001      -2.596
   108   6257.16    -897.96264    -895.53624    1000.001       0.853
   109   3100.81    -896.45686    -895.25443    1000.001       3.261
   110   4595.04    -897.31113    -895.52926    1000.001      -1.973
   111   5810.47    -897.74290    -895.48971    1000.001      -5.907
   112   5048.33    -897.38525    -895.42761    1000.001      -7.610
   113   4249.03    -897.05702    -895.40933    1000.001      -8.833
   114   4267.12    -897.06015    -895.40544    1000.001      -9.470
   115   5320.62    -897.46949    -895.40626    1000.001      -9.372
   116   7390.13    -898.28146    -895.41571    1000.001      -8.326
   117  10073.54    -899.35740    -895.45109    1000.001      -5.804
   118  12063.86    -900.19545    -895.51733    1000.001      -0.955
   119  11834.49    -900.06862    -895.47944    1000.001       6.020
   120   9747.42    -899.33654    -895.55669    1000.001      11.600
   121   6802.97    -897.94045    -895.30240    1000.001      14.350
   122   7534.48    -898.48610    -895.56437    1000.001       9.562
   123   7781.57    -898.51318    -895.49564    1000.001       5.514
   124   6283.47    -897.85955    -895.42295    1000.001       2.933
   125   5148.45    -897.43181    -895.43534    1000.001       0.252
   126   4299.22    -897.10059    -895.43344    1000.001      -1.674
   127   3518.08    -896.78762    -895.42338    1000.001      -2.843
   128   2959.28    -896.56743    -895.41989    1000.001      -3.529
   129   2754.34    -896.49052    -895.42244    1000.001      -3.832
   130   2934.66    -896.56571    -895.42770    1000.001      -3.789
   131   3471.62    -896.77709    -895.43086    1000.001      -3.375
   132   4292.24    -897.09854    -895.43409    1000.001      -2.616
   133   5279.17    -897.48624    -895.43908    1000.001      -1.507
   134   6248.23    -897.87012    -895.44718    1000.001      -0.004
   135   6918.25    -898.14098    -895.45823    1000.001       1.912
   136   6931.95    -898.15590    -895.46782    1000.001       4.212
   137   6029.23    -897.80358    -895.46557    1000.001       6.682
   138   4392.47    -897.14692    -895.44360    1000.001       8.866
   139   2867.65    -896.52544    -895.41342    1000.001      10.055
   140   2495.79    -896.37796    -895.41014    1000.001       9.675
   141   3343.49    -896.73861    -895.44207    1000.001       7.971
   142   4382.70    -897.15838    -895.45885    1000.001       5.842
   143   4865.26    -897.33445    -895.44780    1000.001       3.837
   144   4815.38    -897.28893    -895.42163    1000.001       2.088
   145   4544.39    -897.16042    -895.39820    1000.001       0.573
   146   4332.77    -897.06078    -895.38062    1000.001      -0.692
   147   4393.07    -897.07166    -895.36811    1000.001      -1.649
   148   4892.42    -897.25801    -895.36083    1000.001      -2.215
   149   5894.17    -897.65145    -895.36580    1000.001      -2.187
   150   6986.97    -898.11993    -895.41052    1000.001      -1.131
   151   6552.33    -898.01123    -895.47036    1000.001       1.384
   152   5228.46    -897.23158    -895.20409    1000.001       3.167
   153   6801.86    -898.10612    -895.46849    1000.001       0.105
   154   7134.40    -898.16759    -895.40101    1000.001      -1.575
   155   6017.37    -897.69237    -895.35895    1000.001      -2.345
   156   5043.31    -897.30641    -895.35072    1000.001      -2.882
   157   4668.88    -897.16050    -895.35000    1000.001      -2.905
   158   4957.95    -897.27295    -895.35035    1000.001      -2.344
   159   5883.61    -897.63624    -895.35469    1000.001      -1.112
   160   7184.86    -898.16714    -895.38100    1000.001       1.040
   161   7666.88    -898.43410    -895.46103    1000.001       4.544
   162   5864.92    -897.60028    -895.32598    1000.001       8.774
   163   6007.89    -897.74381    -895.41407    1000.001       8.293
   164   7178.10    -898.23889    -895.45537    1000.001       5.889
   165   6244.57    -897.80585    -895.38433    1000.001       4.803
   166   5026.36    -897.31506    -895.36594    1000.001       3.412
   167   4431.25    -897.08308    -895.36473    1000.001       1.998
   168   4582.38    -897.14313    -895.36617    1000.001       0.841
   169   5424.63    -897.47328    -895.36972    1000.001       0.127
   170   6745.86    -898.00489    -895.38899    1000.001       0.165
   171   7604.55    -898.40835    -895.45946    1000.001       1.485
   172   6180.51    -897.81582    -895.41914    1000.001       4.064
   173   5672.68    -897.52074    -895.32099    1000.001       3.469
   174   7169.28    -898.23805    -895.45795    1000.001      -0.252
   175   6433.36    -897.87029    -895.37556    1000.001      -1.901
   176   4987.82    -897.28281    -895.34863    1000.001      -3.208
   177   4063.18    -896.91997    -895.34435    1000.001      -4.163
   178   3926.93    -896.86697    -895.34419    1000.001      -4.542
   179   4597.68    -897.12889    -895.34600    1000.001      -4.271
   180   5950.54    -897.66720    -895.35970    1000.001      -3.169
   181   7273.66    -898.23929    -895.41871    1000.001      -0.805
   182   6627.78    -898.02505    -895.45493    1000.001       3.099
   183   5705.05    -897.41188    -895.19958    1000.001       5.281
   184   7551.19    -898.37346    -895.44526    1000.001       2.795
   185   7345.37    -898.20692    -895.35854    1000.001       2.259
   186   5873.64    -897.59964    -895.32196    1000.001       2.211
   187   4684.75    -897.13098    -895.31433    1000.001       2.203
   188   4200.12    -896.94094    -895.31222    1000.001       2.397
   189   4526.17    -897.06694    -895.31178    1000.001       2.747
   190   5644.97    -897.50904    -895.32003    1000.001       3.324
   191   7084.98    -898.11266    -895.36524    1000.001       4.514
   192   7073.31    -898.18939    -895.44650    1000.001       6.869
   193   5596.40    -897.32205    -895.15187    1000.001       8.587
   194   7168.70    -898.23369    -895.45381    1000.001       4.567
   195   7575.10    -898.32195    -895.38448    1000.001       1.637
   196   6212.26    -897.74377    -895.33478    1000.001      -0.270
   197   4922.49    -897.23306    -895.32421    1000.001      -2.020
   198   4278.91    -896.98175    -895.32247    1000.001      -3.267
   199   4389.78    -897.02449    -895.32222    1000.001      -3.908
   200   5246.59    -897.36173    -895.32720    1000.001      -3.839
